t (s),V (mV)
0,18.5305
0.974,18.5359
1.914,18.5403
2.913,18.539
3.913,18.532
4.913,18.5243
5.914,18.5155
6.913,18.5063
7.913,18.4956
8.913,18.4846
9.914,18.4741
10.913,18.4616
11.913,18.4512
12.913,18.4399
13.914,18.4267
14.913,18.4139
15.913,18.402
16.913,18.3889
17.913,18.3768
18.913,18.3626
19.913,18.3487
20.913,18.334
21.914,18.3199
22.913,18.3044
23.913,18.2914
24.913,18.2774
25.913,18.2622
26.913,18.2483
27.913,18.2335
28.913,18.2185
29.913,18.2054
30.914,18.1926
31.913,18.1782
32.914,18.1609
33.913,18.1452
34.913,18.1308
35.914,18.1162
36.913,18.1019
37.913,18.0879
38.913,18.0723
39.913,18.0579
40.913,18.0428
41.913,18.0281
42.914,18.0131
43.913,17.9996
44.913,17.9848
45.914,17.9696
46.914,17.9554
47.913,17.9413
48.914,17.9268
49.914,17.9119
50.913,17.898
51.913,17.8841
52.913,17.8702
53.913,17.8555
54.913,17.8408
55.913,17.8271
56.913,17.8116
57.913,17.7986
58.914,17.7833
59.913,17.769
60.913,17.7542
61.914,17.7403
62.913,17.725
63.914,17.7097
64.913,17.6954
65.913,17.6811
66.914,17.6659
67.913,17.6509
68.913,17.6357
69.914,17.6198
70.913,17.6037
71.914,17.5895
72.913,17.573
73.914,17.5586
74.914,17.5431
75.913,17.5281
76.913,17.5132
77.913,17.4987
78.913,17.4839
79.914,17.4708
80.913,17.4565
81.913,17.4417
82.913,17.4287
83.913,17.4142
84.913,17.3997
85.914,17.3855
86.913,17.3729
87.913,17.3581
88.913,17.3444
89.913,17.33
90.913,17.3156
91.913,17.3004
92.913,17.2854
93.914,17.2718
94.913,17.2571
95.914,17.2428
96.913,17.2272
97.913,17.2118
98.914,17.1969
99.913,17.1826
100.913,17.1686
101.914,17.1551
102.913,17.1413
103.913,17.1282
104.913,17.1149
105.914,17.1012
106.913,17.0883
107.913,17.0751
108.914,17.0617
109.913,17.0484
110.913,17.0344
111.914,17.0209
112.913,17.007
113.913,16.9928
114.914,16.9796
115.913,16.9653
116.914,16.9506
117.913,16.9355
118.913,16.9216
119.914,16.9073
120.913,16.8918
121.913,16.8775
122.913,16.863
123.913,16.8508
124.914,16.8381
125.913,16.8267
126.913,16.8114
127.914,16.797
128.913,16.7829
129.914,16.7701
130.913,16.7569
131.913,16.7435
132.914,16.7301
133.913,16.7176
134.913,16.7046
135.914,16.6955
136.913,16.6821
137.913,16.6648
138.914,16.6488
139.913,16.6329
140.914,16.6196
141.913,16.6043
142.914,16.5908
143.913,16.5768
144.914,16.5632
145.913,16.5503
146.914,16.5367
147.913,16.5234
148.914,16.5113
149.913,16.4986
150.914,16.4858
151.913,16.4725
152.914,16.46
153.913,16.4486
154.913,16.4355
155.913,16.4228
156.913,16.4095
157.914,16.3961
158.913,16.3825
159.914,16.3691
160.913,16.3551
161.913,16.342
162.913,16.3281
163.913,16.3152
164.913,16.3014
165.913,16.2875
166.913,16.2736
167.914,16.2606
168.913,16.2478
169.913,16.2341
170.914,16.2216
171.913,16.2091
172.913,16.1959
173.913,16.183
174.913,16.1706
175.914,16.1587
176.913,16.1456
177.914,16.1331
178.913,16.1209
179.914,16.109
180.913,16.0974
181.914,16.0842
182.914,16.0721
183.913,16.0594
184.913,16.047
185.913,16.0349
186.913,16.0209
187.913,16.0086
188.913,15.995
189.913,15.9829
190.913,15.9693
191.914,15.9564
192.913,15.9433
193.914,15.9307
194.913,15.9166
195.914,15.9037
196.913,15.8904
197.914,15.8778
198.913,15.8648
199.913,15.8524
200.914,15.8401
201.913,15.8286
202.914,15.8164
203.913,15.8042
204.913,15.7933
205.913,15.7806
206.913,15.7699
207.913,15.7578
208.913,15.7471
209.914,15.7351
210.913,15.7224
211.913,15.7101
212.914,15.6977
213.914,15.6847
214.913,15.6729
215.914,15.6607
216.913,15.6477
217.914,15.6351
218.914,15.6223
219.913,15.6093
220.914,15.5979
221.913,15.584
222.914,15.5723
223.913,15.5593
224.914,15.5472
225.913,15.5346
226.913,15.5228
227.914,15.5103
228.913,15.4983
229.914,15.486
230.913,15.4746
231.913,15.4629
232.914,15.4509
233.913,15.438
234.914,15.4267
235.913,15.4148
236.913,15.4031
237.913,15.3919
238.913,15.3793
239.913,15.3687
240.914,15.356
241.913,15.3449
242.913,15.3336
243.913,15.3225
244.913,15.3097
245.913,15.2986
246.914,15.2865
247.913,15.2743
248.913,15.2625
249.913,15.2504
250.913,15.2377
251.913,15.2259
252.913,15.2143
253.913,15.2019
254.914,15.1905
255.913,15.1783
256.913,15.1654
257.913,15.1535
258.913,15.1426
259.913,15.1311
260.914,15.1182
261.913,15.1067
262.913,15.0952
263.913,15.0829
264.913,15.0705
265.914,15.0596
266.913,15.0473
267.913,15.0341
268.914,15.0227
269.913,15.0105
270.914,14.9996
271.914,14.9869
272.913,14.9741
273.913,14.9621
274.914,14.9507
275.913,14.9389
276.913,14.9273
277.914,14.9159
278.913,14.9043
279.913,14.893
280.914,14.8813
281.914,14.8698
282.913,14.8583
283.913,14.8469
284.914,14.836
285.913,14.8246
286.913,14.8139
287.913,14.8032
288.914,14.7922
289.913,14.7811
290.913,14.77
291.914,14.7577
292.913,14.7468
293.913,14.7365
294.913,14.7252
295.914,14.7133
296.913,14.7026
297.913,14.691
298.914,14.6802
299.913,14.669
300.913,14.6571
301.914,14.6462
302.913,14.6338
303.913,14.6228
304.913,14.6113
305.913,14.6006
306.914,14.5897
307.914,14.5783
308.913,14.5665
309.913,14.555
310.914,14.5439
311.913,14.5322
312.913,14.5206
313.913,14.5085
314.913,14.4978
315.913,14.4863
316.914,14.4748
317.913,14.4637
318.913,14.4521
319.914,14.4407
320.913,14.4301
321.913,14.4183
322.913,14.4077
323.914,14.3973
324.914,14.3865
325.913,14.3758
326.913,14.3645
327.913,14.3539
328.914,14.3425
329.913,14.3316
330.913,14.3203
331.913,14.3097
332.913,14.2991
333.914,14.2882
334.913,14.277
335.913,14.2649
336.913,14.2538
337.914,14.243
338.913,14.2329
339.913,14.2223
340.913,14.2113
341.914,14.1998
342.913,14.1895
343.913,14.1791
344.913,14.1675
345.913,14.1579
346.914,14.1468
347.913,14.134
348.913,14.1234
349.913,14.1142
350.913,14.1035
351.913,14.0923
352.914,14.083
353.914,14.0719
354.913,14.0617
355.913,14.0501
356.913,14.0401
357.914,14.0293
358.913,14.018
359.913,14.0077
360.913,13.9982
361.914,13.987
362.913,13.977
363.913,13.9664
364.913,13.9556
365.913,13.9453
366.913,13.9351
367.913,13.9243
368.914,13.9145
369.914,13.9038
370.913,13.8938
371.913,13.8835
372.913,13.873
373.913,13.8631
374.913,13.8525
375.913,13.8427
376.914,13.8321
377.913,13.8219
378.913,13.8117
379.913,13.802
380.914,13.7911
381.913,13.7815
382.913,13.7713
383.913,13.7607
384.913,13.7509
385.913,13.7398
386.913,13.7294
387.914,13.7185
388.914,13.7077
389.913,13.6974
390.913,13.6861
391.913,13.6763
392.913,13.6657
393.914,13.6548
394.914,13.6442
395.913,13.634
396.913,13.6238
397.914,13.6124
398.914,13.6022
399.913,13.5916
400.913,13.5812
401.914,13.5708
402.914,13.5611
403.914,13.5502
404.914,13.5404
405.914,13.5302
406.914,13.5199
407.914,13.5099
408.913,13.4998
409.913,13.4894
410.913,13.4791
411.913,13.4694
412.914,13.4589
413.914,13.4482
414.914,13.4379
415.914,13.4286
416.913,13.418
417.914,13.4081
418.914,13.3982
419.914,13.3888
420.914,13.3786
421.914,13.3685
422.913,13.3582
423.914,13.3489
424.914,13.3396
425.914,13.3298
426.914,13.3201
427.914,13.3103
428.914,13.2997
429.914,13.2898
430.914,13.2799
431.914,13.2698
432.913,13.2607
433.913,13.2498
434.913,13.2402
435.913,13.2299
436.914,13.2201
437.914,13.21
438.914,13.2001
439.914,13.19
440.914,13.18
441.914,13.1697
442.913,13.1599
443.913,13.1491
444.913,13.1392
445.913,13.129
446.913,13.119
447.913,13.1088
448.913,13.0986
449.913,13.0888
450.913,13.078
451.914,13.0685
452.914,13.058
453.913,13.0478
454.914,13.0376
455.914,13.0275
456.913,13.0181
457.913,13.0083
458.914,12.9981
459.913,12.9886
460.913,12.9783
461.914,12.969
462.914,12.9596
463.914,12.9505
464.914,12.9405
465.914,12.9318
466.914,12.9225
467.914,12.9132
468.914,12.9046
469.914,12.895
470.914,12.8861
471.914,12.8769
472.914,12.8679
473.914,12.8591
474.914,12.8491
475.914,12.8403
476.914,12.8312
477.914,12.822
478.913,12.8128
479.913,12.8035
480.913,12.7942
481.914,12.7846
482.914,12.7751
483.914,12.7663
484.914,12.7559
485.914,12.748
486.914,12.7384
487.913,12.7292
488.913,12.7202
489.913,12.7106
490.914,12.7014
491.914,12.6924
492.914,12.6828
493.914,12.6737
494.913,12.6646
495.913,12.6557
496.913,12.6467
497.913,12.6376
498.913,12.6288
499.913,12.6199
500.913,12.6106
501.913,12.6011
502.913,12.591
503.913,12.5826
504.914,12.5736
505.914,12.5643
506.913,12.554
507.913,12.5454
508.913,12.5362
509.913,12.5268
510.913,12.5171
511.913,12.508
512.913,12.498
513.914,12.4894
514.914,12.4804
515.914,12.4711
516.913,12.4616
517.913,12.4523
518.913,12.4437
519.913,12.4348
520.914,12.426
521.914,12.416
522.914,12.4078
523.914,12.3991
524.914,12.3896
525.913,12.3807
526.913,12.3713
527.913,12.3621
528.914,12.3532
529.913,12.345
530.913,12.3359
531.913,12.3274
532.913,12.3179
533.914,12.3084
534.913,12.2995
535.913,12.2907
536.913,12.2817
537.914,12.2722
538.913,12.2638
539.913,12.2551
540.913,12.2462
541.913,12.2375
542.914,12.229
543.914,12.2198
544.914,12.2115
545.913,12.2026
546.913,12.1937
547.913,12.1845
548.913,12.1752
549.913,12.1663
550.913,12.1572
551.914,12.1478
552.914,12.1388
553.913,12.1306
554.913,12.1207
555.913,12.1111
556.914,12.1017
557.913,12.0931
558.913,12.0836
559.913,12.075
560.914,12.065
561.914,12.0551
562.913,12.0476
563.913,12.038
564.913,12.0297
565.913,12.0205
566.914,12.0121
567.914,12.0022
568.913,11.9945
569.913,11.9857
570.913,11.9762
571.914,11.9664
572.913,11.9587
573.913,11.9497
574.914,11.9409
575.914,11.9316
576.913,11.9237
577.913,11.9154
578.913,11.9062
579.913,11.8975
580.913,11.8886
581.914,11.8797
582.914,11.8707
583.913,11.8615
584.913,11.8535
585.913,11.8448
586.914,11.8357
587.913,11.8267
588.913,11.8183
589.913,11.8096
590.914,11.8013
591.913,11.7914
592.913,11.7815
593.913,11.7721
594.913,11.7627
595.914,11.7543
596.913,11.7446
597.913,11.7352
598.914,11.7273
599.913,11.7174
600.913,11.7085
601.913,11.7008
602.913,11.6908
603.913,11.6823
604.914,11.6739
605.913,11.6657
606.914,11.6567
607.913,11.6489
608.913,11.6404
609.913,11.6315
610.913,11.6237
